Point No.	Frequency Set (GHz)	THz Photocurrent (nA)	Frequency Act (GHz)	Amplitude (via StrMod)	Phase (via StrMod)	Timestamp (s)
1	600.000	-0.015	599.999	0.070	0.864	1772223198.806
2	600.000	-0.025	599.996	0.080	1.594	1772223199.068
3	600.000	-0.021	600.002	0.059	1.721	1772223199.294
4	600.000	0.040	600.003	0.147	2.239	1772223199.568
5	600.000	-0.006	599.999	0.090	2.015	1772223199.815
6	600.000	0.022	599.999	0.148	1.368	1772223200.063
7	600.000	-0.036	600.000	0.081	1.984	1772223200.289
8	600.000	0.032	599.997	0.060	2.149	1772223200.538
9	600.000	0.036	600.000	0.081	2.113	1772223200.799
10	600.000	-0.011	600.000	0.070	1.615	1772223201.075
11	600.000	0.020	600.000	0.069	2.140	1772223201.376
12	600.000	-0.008	600.001	0.130	1.377	1772223201.596
13	600.000	-0.006	600.001	0.072	1.847	1772223201.867
14	600.000	0.014	600.002	0.042	3.422	1772223202.093
15	600.000	0.026	600.002	0.052	1.350	1772223202.357
16	600.000	-0.025	599.996	0.084	1.214	1772223202.633
17	600.000	-0.027	600.001	0.069	1.401	1772223202.864
18	600.000	-0.037	600.001	0.075	1.405	1772223203.120
19	600.000	-0.002	600.001	0.060	2.109	1772223203.333
20	600.000	0.033	600.001	0.042	1.028	1772223203.612
21	600.000	-0.018	600.001	0.102	1.004	1772223203.834
22	600.000	-0.016	599.997	0.130	2.315	1772223204.031
23	600.000	-0.019	599.999	0.126	1.466	1772223204.301
24	600.000	0.000	600.000	0.116	2.079	1772223204.515
25	600.000	0.008	600.001	0.082	1.917	1772223204.717
26	600.000	-0.013	600.001	0.105	2.211	1772223205.002
27	600.000	-0.016	600.003	0.114	1.320	1772223205.221
28	600.000	0.009	600.000	0.087	1.599	1772223205.481
29	600.000	0.004	600.000	0.082	2.414	1772223205.720
30	600.000	-0.007	599.998	0.061	0.370	1772223205.970
31	600.000	-0.035	600.000	0.063	1.185	1772223206.251
32	600.000	0.018	599.999	0.102	1.004	1772223206.456
33	600.000	-0.022	599.999	0.127	1.797	1772223206.733
34	600.000	0.024	600.001	0.106	2.214	1772223206.985
35	600.000	-0.013	599.998	0.104	1.313	1772223207.234
36	600.000	0.044	599.999	0.044	4.290	1772223207.483
37	600.000	0.039	600.000	0.051	1.258	1772223207.702
38	600.000	0.004	600.002	0.184	1.975	1772223207.925
39	600.000	0.029	600.003	0.128	1.385	1772223208.154
40	600.000	-0.034	599.997	0.068	2.773	1772223208.417
41	600.000	0.019	599.997	0.065	1.500	1772223208.681
42	600.000	0.029	599.999	0.015	1.716	1772223208.915
43	600.000	0.039	599.997	0.023	0.331	1772223209.200
44	600.000	0.026	600.001	0.118	1.411	1772223209.429
45	600.000	0.005	600.002	0.047	0.903	1772223209.671
46	600.000	-0.023	599.999	0.022	1.979	1772223209.957
47	600.000	-0.054	599.999	0.124	1.296	1772223210.168
48	600.000	0.000	599.998	0.140	1.039	1772223210.422
49	600.000	-0.049	600.000	0.101	2.338	1772223210.675
50	600.000	-0.028	599.999	0.087	1.113	1772223210.935
51	600.000	-0.005	599.997	0.095	2.035	1772223211.194
52	600.000	0.015	599.997	0.133	1.030	1772223211.472
53	600.000	0.015	600.000	0.120	1.316	1772223211.688
54	600.000	0.055	599.999	0.121	1.244	1772223211.953
55	600.000	0.005	600.002	0.041	1.180	1772223212.216
56	600.000	0.019	599.998	0.091	1.233	1772223212.466
57	600.000	0.042	600.002	0.054	1.522	1772223212.712
58	600.000	-0.110	599.999	0.043	1.644	1772223212.944
59	600.000	-0.022	599.999	0.059	4.940	1772223213.211
60	600.000	-0.038	600.001	0.150	5.639	1772223213.436
61	600.000	-0.011	600.000	0.082	4.577	1772223213.696
62	600.000	-0.063	600.002	0.073	0.927	1772223213.952
63	600.000	-0.038	600.003	0.090	6.133	1772223214.216
64	600.000	-0.026	599.998	0.187	5.046	1772223214.463
65	600.000	-0.033	600.002	0.106	1.956	1772223214.675
66	600.000	0.042	600.003	0.139	5.476	1772223214.953
67	600.000	0.008	600.002	0.142	5.414	1772223215.206
68	600.000	-0.049	600.003	0.100	1.484	1772223215.457
69	600.000	0.007	599.998	0.145	5.357	1772223215.713
70	600.000	-0.006	599.999	0.102	5.205	1772223215.957
71	600.000	0.016	599.998	0.060	1.080	1772223216.228
72	600.000	-0.010	600.000	0.141	5.870	1772223216.435
73	600.000	-0.035	600.001	0.170	4.882	1772223216.706
74	600.000	0.002	599.998	0.115	2.547	1772223216.943
75	600.000	0.067	600.002	0.134	5.988	1772223217.220
76	600.000	-0.024	600.004	0.269	5.257	1772223217.444
77	600.000	-0.011	599.998	0.077	2.643	1772223217.695
78	600.000	0.009	599.998	0.138	5.904	1772223217.978
79	600.000	-0.047	600.001	0.204	5.313	1772223218.273
80	600.000	0.018	599.995	0.114	5.122	1772223218.494
81	600.000	0.003	599.998	0.127	0.667	1772223218.702
82	600.000	-0.011	600.003	0.201	5.319	1772223218.961
83	600.000	0.019	600.001	0.037	0.254	1772223219.196
84	600.000	-0.003	600.004	0.079	5.421	1772223219.458
85	600.000	-0.037	600.000	0.208	5.029	1772223219.718
86	600.000	0.015	599.997	0.049	3.065	1772223219.941
87	600.000	-0.009	600.000	0.144	5.578	1772223220.212
88	600.000	0.007	599.996	0.153	4.663	1772223220.439
89	600.000	-0.006	600.001	0.067	2.156	1772223220.714
90	600.000	0.025	600.003	0.249	5.355	1772223220.937
91	600.000	-0.063	599.998	0.013	5.857	1772223221.197
92	600.000	0.038	599.999	0.017	0.738	1772223221.456
93	600.000	-0.036	600.002	0.244	5.250	1772223221.681
94	600.000	0.019	599.998	0.103	2.684	1772223221.949
95	600.000	-0.035	599.998	0.114	5.523	1772223222.184
96	600.000	-0.042	600.000	0.176	5.192	1772223222.455
97	600.000	-0.036	599.999	0.106	1.565	1772223222.701
98	600.000	-0.017	599.999	0.158	5.847	1772223222.966
99	600.000	-0.065	600.002	0.260	5.081	1772223223.221
100	600.000	0.024	600.000	0.086	2.791	1772223223.449
101	600.000	-0.002	600.002	0.072	5.960	1772223223.706
102	600.000	-0.003	600.001	0.211	5.143	1772223223.950
103	600.000	0.047	600.002	0.080	2.123	1772223224.208
104	600.000	0.012	600.002	0.138	6.179	1772223224.451
105	600.000	-0.015	599.999	0.241	5.021	1772223224.683
106	600.000	-0.009	600.000	0.088	1.535	1772223224.951
107	600.000	-0.027	599.999	0.181	5.778	1772223225.190
108	600.000	0.003	599.999	0.196	5.302	1772223225.438
109	600.000	0.035	599.998	0.065	3.085	1772223225.720
110	600.000	0.010	600.000	0.092	0.317	1772223225.965
111	600.000	-0.016	599.999	0.257	5.096	1772223226.212
112	600.000	-0.029	600.000	0.098	2.186	1772223226.483
113	600.000	0.034	599.999	0.100	6.108	1772223226.726
114	600.000	0.001	600.002	0.141	4.529	1772223226.953
115	600.000	0.042	599.999	0.131	1.914	1772223227.224
116	600.000	-0.020	599.997	0.234	6.264	1772223227.457
117	600.000	-0.045	600.000	0.217	5.102	1772223227.729
118	600.000	-0.058	600.001	0.073	1.825	1772223227.958
119	600.000	0.015	600.003	0.178	5.706	1772223228.219
120	600.000	0.004	600.000	0.278	4.834	1772223228.479
121	600.000	-0.017	600.000	0.185	1.716	1772223228.687
122	600.000	0.019	600.006	0.237	5.926	1772223228.960
123	600.000	-0.005	600.002	0.208	4.293	1772223229.193
124	600.000	0.012	600.000	0.176	0.808	1772223229.408
125	600.000	-0.041	599.997	0.269	5.159	1772223229.656
126	600.000	-0.001	600.001	0.084	2.375	1772223229.913
127	600.000	0.024	599.997	0.181	0.137	1772223230.187
128	600.000	-0.020	599.995	0.244	4.784	1772223230.424
129	600.000	0.005	599.999	0.109	2.228	1772223230.665
130	600.000	-0.027	599.998	0.108	5.162	1772223230.921
131	600.000	-0.003	599.998	0.326	4.779	1772223231.159
132	600.000	-0.023	600.001	0.155	2.157	1772223231.399
133	600.000	0.014	599.998	0.195	5.921	1772223231.636
134	600.000	0.002	600.002	0.162	4.865	1772223231.901
135	600.000	0.026	599.997	0.121	1.494	1772223232.149
136	600.000	0.011	599.996	0.184	5.951	1772223232.404
137	600.000	-0.012	600.001	0.221	4.570	1772223232.648
138	600.000	0.038	599.998	0.050	2.847	1772223232.912
139	600.000	0.008	599.999	0.102	0.785	1772223233.190
140	600.000	0.025	599.999	0.214	2.398	1772223233.440
141	600.000	-0.021	599.998	0.227	2.296	1772223233.688
142	600.000	-0.010	599.998	0.229	2.716	1772223233.926
143	600.000	-0.029	600.000	0.253	2.307	1772223234.168
144	600.000	0.077	599.999	0.250	1.766	1772223234.414
145	600.000	-0.040	600.000	0.245	2.636	1772223234.678
146	600.000	-0.025	599.998	0.242	2.654	1772223234.930
147	600.000	0.029	600.000	0.226	2.138	1772223235.168
148	600.000	0.020	600.000	0.167	2.914	1772223235.434
149	600.000	-0.051	599.998	0.175	6.008	1772223235.664
150	600.000	-0.000	600.002	0.304	4.764	1772223235.911
151	600.000	-0.015	599.997	0.183	6.076	1772223236.154
152	600.000	-0.016	600.000	0.160	4.347	1772223236.409
153	600.000	-0.014	600.000	0.159	0.059	1772223236.667
154	600.000	-0.023	599.998	0.223	4.471	1772223236.914
155	600.000	0.027	600.003	0.197	0.505	1772223237.159
156	600.000	0.015	600.000	0.159	4.215	1772223237.414
157	600.000	-0.002	600.000	0.275	0.216	1772223237.641
158	600.000	-0.010	600.005	0.280	4.484	1772223237.886
159	600.000	0.023	599.997	0.163	0.255	1772223238.109
160	600.000	0.006	600.001	0.252	4.886	1772223238.384
161	600.000	-0.020	599.999	0.198	0.574	1772223238.618
162	600.000	0.010	600.002	0.267	4.903	1772223238.914
163	600.000	0.038	599.999	0.185	0.475	1772223239.131
164	600.000	0.029	600.001	0.209	4.445	1772223239.406
165	600.000	0.009	599.999	0.207	5.698	1772223239.642
166	600.000	-0.022	599.997	0.199	4.329	1772223239.887
167	600.000	-0.012	600.001	0.214	0.164	1772223240.128
168	600.000	0.016	599.998	0.109	3.560	1772223240.386
169	600.000	0.003	599.999	0.201	5.972	1772223240.651
170	600.000	0.009	600.001	0.217	3.848	1772223240.903
171	600.000	-0.018	599.999	0.179	5.572	1772223241.141
172	600.000	0.025	600.000	0.151	3.542	1772223241.389
173	600.000	0.047	600.001	0.257	5.147	1772223241.657
174	600.000	-0.004	599.997	0.064	1.787	1772223241.895
175	600.000	0.005	600.001	0.173	5.110	1772223242.126
176	600.000	0.001	600.001	0.122	2.466	1772223242.406
177	600.000	0.013	600.000	0.267	5.234	1772223242.643
178	600.000	0.008	600.002	0.110	2.266	1772223242.883
179	600.000	-0.044	600.006	0.209	5.923	1772223243.146
180	600.000	-0.012	600.001	0.190	3.519	1772223243.394
181	600.000	0.018	600.000	0.205	5.892	1772223243.644
182	600.000	0.009	599.997	0.121	3.671	1772223243.887
183	600.000	0.028	600.001	0.273	5.528	1772223244.144
184	600.000	-0.031	599.998	0.114	2.456	1772223244.404
185	600.000	-0.041	599.998	0.261	5.599	1772223244.626
186	600.000	0.032	600.002	0.125	2.584	1772223244.910
187	600.000	-0.012	599.999	0.243	5.542	1772223245.132
188	600.000	-0.021	600.003	0.161	3.245	1772223245.376
189	600.000	0.035	599.998	0.290	5.865	1772223245.607
190	600.000	-0.019	599.999	0.073	2.869	1772223245.908
191	600.000	0.010	599.999	0.330	5.123	1772223246.164
192	600.000	-0.035	599.997	0.171	2.157	1772223246.438
193	600.000	0.003	600.000	0.366	5.039	1772223246.657
194	600.000	0.021	600.004	0.246	1.784	1772223246.933
195	600.000	-0.015	600.002	0.321	5.164	1772223247.166
196	600.000	-0.036	600.001	0.222	2.169	1772223247.442
197	600.000	-0.001	599.999	0.346	4.930	1772223247.690
198	600.000	0.005	600.001	0.210	2.054	1772223247.928
199	600.000	-0.027	600.002	0.371	4.999	1772223248.162
200	600.000	0.017	600.004	0.246	2.011	1772223248.402
201	600.000	-0.014	599.999	0.305	5.328	1772223248.675
202	600.000	0.007	599.999	0.228	1.715	1772223248.905
203	600.000	0.028	599.998	0.319	5.331	1772223249.181
204	600.000	-0.026	599.997	0.119	1.911	1772223249.435
205	600.000	-0.018	600.001	0.419	5.029	1772223249.648
206	600.000	0.014	600.000	0.237	2.065	1772223249.907
207	600.000	-0.008	600.002	0.443	5.322	1772223250.131
208	600.000	0.047	599.999	0.192	2.119	1772223250.388
209	600.000	-0.019	600.001	0.297	5.385	1772223250.635
210	600.000	0.024	599.998	0.127	2.015	1772223250.886
211	600.000	0.007	599.999	0.329	5.134	1772223251.133
212	600.000	0.026	600.001	0.206	1.948	1772223251.422
213	600.000	0.012	599.998	0.312	4.928	1772223251.644
214	600.000	0.025	600.001	0.218	1.748	1772223251.873
215	600.000	0.010	599.997	0.344	5.145	1772223252.146
216	600.000	-0.019	600.000	0.222	1.304	1772223252.394
217	600.000	-0.014	600.003	0.324	5.046	1772223252.642
218	600.000	-0.040	600.000	0.289	1.619	1772223252.891
219	600.000	-0.001	599.999	0.460	5.164	1772223253.128
220	600.000	-0.017	599.997	0.258	1.865	1772223253.400
221	600.000	-0.042	599.997	0.371	4.997	1772223253.637
222	600.000	0.014	600.001	0.304	1.587	1772223253.898
223	600.000	0.056	599.997	0.348	5.043	1772223254.153
224	600.000	0.007	600.000	0.239	1.803	1772223254.409
225	600.000	0.019	600.001	0.343	5.150	1772223254.644
226	600.000	-0.019	599.997	0.254	2.101	1772223254.877
227	600.000	-0.002	600.000	0.399	4.912	1772223255.140
228	600.000	-0.004	600.002	0.154	1.034	1772223255.404
229	600.000	0.018	600.000	0.321	4.676	1772223255.694
230	600.000	-0.010	600.002	0.278	0.858	1772223255.958
231	600.000	0.008	600.000	0.307	4.495	1772223256.209
232	600.000	0.007	599.999	0.247	1.046	1772223256.428
233	600.000	0.032	599.999	0.399	4.812	1772223256.686
234	600.000	0.039	600.000	0.220	0.847	1772223256.962
235	600.000	0.017	600.005	0.297	4.682	1772223257.212
236	600.000	-0.023	600.002	0.247	0.940	1772223257.445
237	600.000	-0.003	599.999	0.297	4.699	1772223257.688
238	600.000	0.000	600.000	0.220	0.881	1772223257.950
239	600.000	0.015	600.002	0.375	4.822	1772223258.188
240	600.000	-0.032	600.000	0.241	1.365	1772223258.433
241	600.000	-0.031	600.000	0.349	4.575	1772223258.657
242	600.000	-0.008	600.001	0.221	1.183	1772223258.922
243	600.000	-0.007	599.999	0.346	4.753	1772223259.155
244	600.000	0.032	599.999	0.301	1.200	1772223259.401
245	600.000	0.015	599.998	0.250	4.585	1772223259.674
246	600.000	-0.001	600.000	0.170	0.465	1772223259.925
247	600.000	-0.017	600.002	0.331	4.760	1772223260.169
248	600.000	0.001	600.000	0.210	0.906	1772223260.435
249	600.000	-0.025	600.000	0.408	4.516	1772223260.672
250	600.000	-0.040	599.999	0.315	0.977	1772223260.918
251	600.000	0.027	599.999	0.332	4.596	1772223261.185
252	600.000	-0.004	600.001	0.219	1.000	1772223261.433
253	600.000	0.013	599.998	0.415	4.482	1772223261.661
254	600.000	0.036	599.997	0.213	1.143	1772223261.923
255	600.000	0.014	600.003	0.331	4.734	1772223262.172
256	600.000	-0.009	600.001	0.188	0.461	1772223262.445
257	600.000	-0.002	599.997	0.271	4.427	1772223262.668
258	600.000	0.007	599.997	0.251	1.107	1772223262.900
259	600.000	-0.001	600.002	0.317	4.681	1772223263.169
260	600.000	-0.018	600.000	0.192	0.319	1772223263.421
261	600.000	-0.009	599.998	0.357	4.600	1772223263.675
262	600.000	0.054	600.001	0.169	0.592	1772223263.924
263	600.000	-0.004	600.000	0.306	4.333	1772223264.184
264	600.000	0.001	599.996	0.158	0.529	1772223264.416
265	600.000	-0.045	599.999	0.325	4.590	1772223264.645
266	600.000	0.024	600.000	0.254	1.030	1772223264.919
267	600.000	0.022	599.999	0.285	4.418	1772223265.168
268	600.000	0.009	600.001	0.144	6.187	1772223265.436
269	600.000	0.005	599.999	0.130	4.306	1772223265.693
270	600.000	-0.009	600.001	0.146	0.259	1772223265.911
271	600.000	0.011	600.001	0.282	4.345	1772223266.161
272	600.000	0.033	600.000	0.249	0.646	1772223266.411
273	600.000	-0.054	599.999	0.267	4.266	1772223266.676
274	600.000	0.004	600.000	0.238	0.707	1772223266.903
275	600.000	-0.007	600.000	0.256	4.321	1772223267.172
276	600.000	-0.002	599.996	0.244	0.324	1772223267.426
277	600.000	0.002	600.001	0.261	4.312	1772223267.667
278	600.000	-0.012	600.001	0.188	0.454	1772223267.897
279	600.000	-0.000	600.000	0.345	4.778	1772223268.142
280	600.000	-0.046	600.001	0.239	0.430	1772223268.418
281	600.000	0.031	599.998	0.283	4.174	1772223268.661
282	600.000	-0.013	600.000	0.169	0.408	1772223268.915
283	600.000	-0.037	600.000	0.258	4.517	1772223269.149
284	600.000	0.001	600.002	0.312	0.723	1772223269.349
285	600.000	-0.004	600.002	0.322	4.663	1772223269.620
286	600.000	-0.027	600.000	0.230	0.765	1772223269.888
287	600.000	-0.036	599.999	0.292	4.210	1772223270.172
288	600.000	0.001	600.002	0.259	0.350	1772223270.407
289	600.000	-0.036	600.002	0.305	4.303	1772223270.672
290	600.000	-0.064	599.996	0.140	0.270	1772223270.919
291	600.000	0.004	600.001	0.290	3.931	1772223271.183
292	600.000	0.012	600.000	0.289	0.021	1772223271.439
293	600.000	-0.010	599.999	0.213	3.829	1772223271.678
294	600.000	0.010	600.000	0.219	6.101	1772223271.937
295	600.000	0.004	599.999	0.207	3.622	1772223272.165
296	600.000	-0.004	600.002	0.257	0.141	1772223272.430
297	600.000	-0.008	600.000	0.256	3.830	1772223272.665
298	600.000	-0.028	600.000	0.204	5.947	1772223272.935
299	600.000	-0.018	600.004	0.291	3.704	1772223273.177
300	600.000	-0.028	600.002	0.220	0.014	1772223273.409
301	600.000	0.017	600.004	0.112	3.478	1772223273.677
302	600.000	-0.036	599.998	0.255	0.105	1772223273.910
303	600.000	0.025	599.997	0.267	4.018	1772223274.180
304	600.000	-0.014	599.999	0.140	5.774	1772223274.425
305	600.000	-0.027	600.001	0.233	3.718	1772223274.680
306	600.000	0.003	599.999	0.231	5.573	1772223274.934
307	600.000	0.021	600.000	0.199	3.769	1772223275.180
308	600.000	-0.015	600.002	0.201	0.095	1772223275.416
309	600.000	0.018	600.000	0.378	4.105	1772223275.659
310	600.000	0.024	600.004	0.253	6.134	1772223275.928
311	600.000	0.035	599.996	0.206	3.785	1772223276.175
312	600.000	-0.014	599.999	0.277	5.773	1772223276.416
313	600.000	0.034	600.002	0.125	2.441	1772223276.659
314	600.000	-0.001	599.999	0.302	5.378	1772223276.932
315	600.000	-0.028	600.000	0.206	3.116	1772223277.169
316	600.000	0.026	600.000	0.258	5.978	1772223277.405
317	600.000	-0.020	599.999	0.141	4.112	1772223277.667
318	600.000	0.050	600.000	0.205	5.725	1772223277.917
319	600.000	-0.022	600.002	0.163	3.482	1772223278.167
320	600.000	-0.037	600.004	0.274	5.840	1772223278.447
321	600.000	0.053	600.002	0.331	3.628	1772223278.665
322	600.000	0.012	600.001	0.190	5.726	1772223278.924
323	600.000	-0.038	600.001	0.165	3.057	1772223279.172
324	600.000	0.005	599.999	0.220	5.601	1772223279.441
325	600.000	0.028	600.000	0.137	2.993	1772223279.686
326	600.000	-0.022	599.999	0.190	5.872	1772223279.945
327	600.000	0.003	599.998	0.181	3.401	1772223280.181
328	600.000	0.006	599.999	0.301	5.780	1772223280.460
329	600.000	-0.002	600.001	0.181	2.620	1772223280.692
330	600.000	0.009	600.001	0.329	5.753	1772223280.922
331	600.000	-0.074	600.001	0.121	3.565	1772223281.174
332	600.000	0.040	599.999	0.234	5.509	1772223281.413
333	600.000	0.031	599.999	0.169	3.298	1772223281.689
334	600.000	0.056	600.001	0.308	5.996	1772223281.943
335	600.000	0.028	599.996	0.142	3.647	1772223282.188
336	600.000	0.015	599.999	0.260	5.214	1772223282.440
337	600.000	0.012	600.000	0.294	3.351	1772223282.664
338	600.000	-0.007	600.002	0.252	5.480	1772223282.932
339	600.000	0.028	600.003	0.128	2.734	1772223283.158
340	600.000	0.008	600.001	0.189	5.775	1772223283.404
341	600.000	-0.020	600.001	0.296	4.165	1772223283.626
342	600.000	-0.027	600.001	0.179	6.243	1772223283.868
343	600.000	-0.031	600.002	0.246	4.134	1772223284.118
344	600.000	-0.024	599.999	0.241	6.118	1772223284.403
345	600.000	-0.016	600.001	0.263	4.199	1772223284.613
346	600.000	0.007	600.002	0.238	0.464	1772223284.886
347	600.000	0.031	600.002	0.255	4.328	1772223285.112
348	600.000	0.038	600.001	0.185	6.130	1772223285.385
349	600.000	0.023	600.001	0.236	4.133	1772223285.615
350	600.000	-0.019	599.997	0.211	6.254	1772223285.886
351	600.000	-0.003	600.001	0.232	3.941	1772223286.118
352	600.000	0.013	599.998	0.203	0.310	1772223286.347
353	600.000	-0.009	599.998	0.259	4.227	1772223286.632
354	600.000	0.003	600.000	0.203	0.272	1772223286.858
355	600.000	-0.064	599.999	0.276	3.957	1772223287.133
356	600.000	-0.007	599.999	0.193	6.139	1772223287.362
357	600.000	0.029	599.998	0.241	4.080	1772223287.624
358	600.000	0.015	600.001	0.229	5.954	1772223287.879
359	600.000	0.085	600.000	0.114	4.043	1772223288.145
360	600.000	0.044	600.001	0.186	5.707	1772223288.368
361	600.000	-0.024	600.003	0.213	3.863	1772223288.595
362	600.000	-0.031	599.998	0.182	6.149	1772223288.877
363	600.000	0.035	599.997	0.204	3.812	1772223289.108
364	600.000	0.011	599.997	0.217	0.189	1772223289.359
365	600.000	-0.021	599.998	0.217	3.883	1772223289.618
366	600.000	0.012	599.999	0.177	5.775	1772223289.867
367	600.000	-0.025	599.998	0.265	4.059	1772223290.114
368	600.000	0.020	600.002	0.195	0.268	1772223290.347
369	600.000	-0.044	600.003	0.198	3.949	1772223290.628
370	600.000	0.006	600.002	0.243	5.620	1772223290.896
371	600.000	0.031	600.001	0.118	3.259	1772223291.129
372	600.000	-0.003	599.998	0.284	5.679	1772223291.368
373	600.000	0.005	600.002	0.131	3.679	1772223291.628
